File: raman_norm/csv/raman_NP_ITO_10s_5a_P10_488nm.txt
3004.05	2799.45
2997.35	2867.82
2990.64	3075.56
2983.92	3214.47
2977.2	3292.14
2970.48	3507.91
2963.75	3531.73
2957.01	3562.92
2950.27	3641.49
2943.52	3632.52
2936.77	3636.87
2930.01	3528.8
2923.24	3412.04
2916.47	3273.33
2909.69	3201.22
2902.91	3104.17
2896.12	2974.88
2889.33	2944.39
2882.53	2935.99
2875.72	2807.15
2868.91	2722.55
2862.1	2567.71
2855.27	2596.27
2848.44	2601.35
2841.61	2590.32
2834.77	2545.7
2827.92	2457.35
2821.07	2481.48
2814.21	2456
2807.35	2563.08
2800.48	2445.9
2793.6	2499
2786.72	2559.27
2779.83	2591.85
2772.93	2660.63
2766.03	2635.11
2759.13	2728.31
2752.21	2775.07
2745.29	2972.01
2738.37	2959.28
2731.44	3077.81
2724.5	3096.69
2717.56	3160.17
2710.61	3177.49
2703.65	3199.1
2696.69	3201.99
2689.72	3179.05
2682.75	3065.84
2675.77	2977.18
2668.78	2799.96
2661.79	2750.28
2654.79	2704.96
2647.78	2556.99
2640.77	2453.47
2633.75	2384.32
2626.73	2285.4
2619.69	2185.24
2612.66	2088.09
2605.61	1996.8
2598.56	1992.15
2591.51	1974.77
2584.44	1905.04
2577.37	1850.99
2570.3	1792.8
2563.21	1750.24
2556.13	1706.34
2549.03	1721.69
2541.93	1663.82
2534.82	1641.2
2527.71	1608.79
2520.58	1580.65
2513.46	1548.35
2506.32	1481.08
2499.18	1525.92
2492.03	1530.12
2484.88	1416.93
2477.72	1454.72
2470.55	1425.49
2463.38	1411.64
2456.2	1354.65
2449.01	1356.19
2441.82	1328.53
2434.62	1306.49
2427.41	1295.57
2420.2	1266.66
2412.98	1251.65
2405.75	1231.13
2398.52	1209.26
2391.28	1224.71
2384.03	1202.89
2376.78	1216.94
2369.52	1166.24
2362.25	1184.42
2354.98	1197.07
2347.7	1154.77
2340.41	1190.73
2333.12	1155.37
2325.82	1136.49
2318.51	1195.63
2311.2	1104.32
2303.87	1092.37
2296.55	1135.01
2289.21	1128.5
2281.87	1157.41
2274.52	1130.48
2267.17	1095.45
2259.81	1101.22
2252.44	1115.12
2245.06	1111.37
2237.68	1075.13
2230.29	1105.24
2222.89	1131.24
2215.49	1099.13
2208.08	1058.98
2200.66	1122.68
2193.24	1057
2185.81	1081.57
2178.37	1134.32
2170.92	1082.24
2163.47	1073.18
2156.01	1072.17
2148.55	1072.51
2141.07	1098.26
2133.59	1082.53
2126.11	1076.17
2118.61	1079.16
2111.11	1100.81
2103.6	1059.83
2096.09	1108.05
2088.57	1096.38
2081.04	1094.03
2073.5	1103.61
2065.96	1081.37
2058.41	1063.14
2050.85	1074.04
2043.29	1074.36
2035.71	1130.11
2028.14	1093.44
2020.55	1087.14
2012.96	1122.97
2005.36	1094.29
1997.75	1106.4
1990.13	1138.18
1982.51	1091.2
1974.88	1119
1967.25	1127.1
1959.6	1099.88
1951.95	1092.31
1944.29	1084.75
1936.63	1139.8
1928.96	1111.36
1921.28	1081.67
1913.59	1124.86
1905.89	1106.9
1898.19	1107.15
1890.48	1109.99
1882.77	1123.18
1875.04	1150.59
1867.31	1145.62
1859.57	1083.81
1851.83	1162.8
1844.07	1099.8
1836.31	1100.04
1828.55	1140.17
1820.77	1184.08
1812.99	1202.22
1805.2	1202.35
1797.4	1149.92
1789.59	1155.23
1781.78	1184.83
1773.96	1160.69
1766.13	1200.44
1758.3	1236.29
1750.46	1255.49
1742.61	1287.4
1734.75	1320.51
1726.88	1283.65
1719.01	1328.12
1711.13	1319.23
1703.24	1357.25
1695.35	1355.94
1687.44	1472.26
1679.53	1503.69
1671.61	1681.49
1663.69	1735.35
1655.75	1991.95
1647.81	2589.17
1639.86	4249.05
1631.9	7722.26
1623.94	10503.5
1615.97	10772.8
1607.99	11057.9
1600	11959.4
1592	12615.3
1584	11305.3
1575.99	9184.35
1567.97	7298.15
1559.94	5975.99
1551.9	5192.6
1543.86	4674.21
1535.81	4350.51
1527.75	4039.85
1519.68	3951.6
1511.61	3783.05
1503.52	3656.87
1495.43	3682.9
1487.33	3557.05
1479.23	3589.27
1471.11	3575.85
1462.99	3521.83
1454.86	3684.27
1446.72	3668.31
1438.57	4070.72
1430.41	4342.41
1422.25	4702.92
1414.08	5446.77
1405.9	6274.64
1397.71	7282.71
1389.51	8754.57
1381.3	10401.3
1373.09	12442.6
1364.87	14070
1356.64	14580.4
1348.4	13787.8
1340.15	12015
1331.9	9905.63
1323.63	8079.91
1315.36	6692.92
1307.08	5530.86
1298.79	4571.34
1290.49	4078.76
1282.18	3406.68
1273.87	3050.93
1265.54	2721.13
1257.21	2457.98
1248.87	2195.38
1240.52	2074.57
1232.16	1908.57
1223.79	1772.77
1215.41	1594.29
1207.03	1517.51
1198.63	1407.55
1190.23	1345.39
1181.82	1254.84
1173.4	1172.79
1164.97	1153.75
1156.53	1088.55
1148.08	1050.71
1139.62	1012.94
1131.16	944.549
1122.68	951.785
1114.2	917.768
1105.7	868.522
1103.58	763.574