File: raman_norm/csv/raman_QA_crystals_10x3_100pw.txt
1924.42	1114.15
1917.69	17.8385
1910.96	5492.45
1904.23	5904.67
1897.48	5843.19
1890.73	5916.61
1883.98	5830.05
1877.22	5672.66
1870.45	5833.19
1863.68	5735.1
1856.9	5738.94
1850.12	5732.45
1843.33	5734.81
1836.54	5715.08
1829.73	5657.17
1822.93	5586.13
1816.11	5588.58
1809.29	5649.65
1802.47	5640.3
1795.64	5582.67
1788.8	5602.63
1781.96	5565.57
1775.11	5543.17
1768.25	5598.08
1761.39	5409.58
1754.52	5426.66
1747.65	5382.61
1740.77	5393.86
1733.88	5455.89
1726.99	5319.08
1720.09	5350.61
1713.19	5453.04
1706.28	5435.2
1699.36	5488.22
1692.44	5710.09
1685.51	6347.11
1678.58	6255
1671.64	5592.69
1664.69	5331.58
1657.74	5313.92
1650.78	5340.81
1643.81	5261.44
1636.84	5246.73
1629.86	5147.51
1622.88	5125.76
1615.89	5105.47
1608.89	4988.05
1601.89	5109.24
1594.88	5009.12
1587.87	5037.44
1580.85	4947.52
1573.82	4984.36
1566.78	4989.86
1559.74	4935.7
1552.7	4898.66
1545.64	4967.99
1538.59	4858.75
1531.52	4854.4
1524.45	4751.1
1517.37	4892.31
1510.29	4814.55
1503.19	4818.69
1496.1	4700.28
1488.99	4705.91
1481.88	4722.77
1474.77	4749.43
1467.65	4769.01
1460.52	5174.17
1453.38	4943.95
1446.24	4890.51
1439.09	4852.54
1431.93	5272.9
1424.77	4706.99
1417.61	4602.32
1410.43	4816.93
1403.25	4994.94
1396.06	4756.76
1388.87	4706.59
1381.67	4635.69
1374.46	4684.2
1367.25	4757.56
1360.03	4933.24
1352.8	4829.16
1345.57	4488.94
1338.33	4337.11
1331.08	4466.98
1323.83	4315.44
1316.57	4293.61
1309.3	4600.63
1302.03	4913.95
1294.75	4492
1287.47	4659.4
1280.17	4500.25
1272.87	4608.44
1265.57	4957.24
1258.26	4483.82
1250.94	4293.97
1243.61	4317.33
1236.28	4607.84
1228.94	4412.93
1221.59	4442.9
1214.24	4218.58
1206.88	4100.61
1199.51	4100.92
1192.14	4029.36
1184.76	4101.5
1177.37	4023.3
1169.98	3920.89
1162.58	3955.1
1155.17	4141.73
1147.76	4495.21
1140.34	5359.9
1132.91	5038.69
1125.47	4104.94
1118.03	3888.9
1110.58	3869.19
1103.13	4206.17
1095.66	3955.79
1088.19	3893.23
1080.72	3792.01
1073.24	3946.12
1065.75	4336.17
1058.25	4469.47
1050.74	3856.53
1043.23	3647.98
1035.71	3844.02
1028.19	3695.64
1020.66	3595.31
1013.12	3562.78
1005.57	3571.38
998.019	3556.13
990.458	3618.91
982.891	3928.59
975.316	3625.33
967.734	3612.7
960.146	3759.48
952.55	3455.9
944.947	3440.82
937.336	3469.11
929.719	3615.45
922.094	3442.92
914.463	3269.39
906.824	3246.68
899.178	3222.7
891.524	3244.47
883.864	3481.51
876.196	3200.54
868.521	3210.53
860.838	3186.68
853.149	3175.86
845.452	3196.22
837.747	4206.55
830.036	3361.27
822.317	3266.13
814.59	4849.25
806.857	3196.58
799.116	3008.87
791.367	3020.19
783.612	3004.43
775.848	2889.53
768.078	2935.66
760.3	3256.72
752.514	3823.7
744.721	3997.05
736.921	3006.45
729.113	2828.17
721.298	2781.97
713.475	2793.35
705.644	2670.67
697.806	2739.52
689.961	2661.71
682.108	2671.88
674.247	2777.4
666.379	3486.18
658.503	3170.58
650.62	2869.53
642.729	2676.74
634.83	2674.15
626.924	2607.08
619.01	2663.92
611.088	2752.19
603.158	2900.8
595.221	2701.51
587.276	2605.77
579.324	2705.05
571.364	2743.86
563.395	2760
555.42	2593.12
547.436	2477.9
539.444	2625.59
531.445	2746.73
523.438	2871.38
515.423	2400.87
507.4	2312.54
499.369	2282.89
491.331	2290.59
483.284	2856.08
475.23	2338.22
467.167	2143.73
459.097	2217.18
451.019	2400.61
442.933	2044.68
434.838	2021.67
426.736	1978.95
418.626	2011.5
410.507	1970.11
402.381	2388.85
394.246	1953.91
386.104	2034.22
377.953	2202.68
369.794	2054.68
361.627	2318.24
353.452	1801.14
345.269	1729.72
337.078	1691.38
328.878	1864.02
320.67	1646.59
312.454	1640.07
304.23	1758.76
295.997	1631.93
287.756	1741.89
279.507	1815.26
271.25	1463.58
262.984	1598.76
254.71	1504.13
246.428	1436.23
238.137	1440.8
229.837	1355.03
221.53	1316.36
213.214	1268.15
204.889	1379.74
196.556	1555.88
188.215	1628.6
179.865	1211.53
171.507	1143.32
163.14	1112.29
154.764	1124.28
146.38	1166.05
137.987	1273.25
129.586	1269.57
121.176	1138.7
112.758	1289.52
104.331	2801.78
95.8951	2141.24
87.4506	1667.91
78.9974	1322.07
70.5356	936.781
62.0649	49.5639
53.5856	11.7887
45.0974	7.06593
36.6005	14.1172
28.0947	16.453
19.5801	31.698
11.0567	63.3301
2.52441	5141.98
-6.01678	162.677
-12.4285	36.2522