File: carbon_dots_spectra/csv/1_3k_water_28_cd.txt
'1_3k_water_28_cd.spc - RawData'
'Wavelength nm.'	'Abs.'
200.0	1.1995
203.0	0.9417
206.0	0.7197
209.0	0.5593
212.0	0.4446
215.0	0.3582
218.0	0.2926
221.0	0.2472
224.0	0.2137
227.0	0.1913
230.0	0.1761
233.0	0.1657
236.0	0.1578
239.0	0.1513
242.0	0.1453
245.0	0.1384
248.0	0.1299
251.0	0.1203
254.0	0.1098
257.0	0.1005
260.0	0.0932
263.0	0.0883
266.0	0.0858
269.0	0.0843
272.0	0.0837
275.0	0.0838
278.0	0.0842
281.0	0.0851
284.0	0.0859
287.0	0.0872
290.0	0.0877
293.0	0.0883
296.0	0.0895
299.0	0.0906
302.0	0.0912
305.0	0.0926
308.0	0.0940
311.0	0.0951
314.0	0.0964
317.0	0.0972
320.0	0.0968
323.0	0.0968
326.0	0.0958
329.0	0.0950
332.0	0.0934
335.0	0.0918
338.0	0.0897
341.0	0.0878
344.0	0.0863
347.0	0.0844
350.0	0.0831
353.0	0.0818
356.0	0.0806
359.0	0.0793
362.0	0.0774
365.0	0.0756
368.0	0.0734
371.0	0.0710
374.0	0.0684
377.0	0.0663
380.0	0.0635
383.0	0.0612
386.0	0.0591
389.0	0.0566
392.0	0.0545
395.0	0.0525
398.0	0.0512
401.0	0.0495
404.0	0.0484
407.0	0.0475
410.0	0.0468
413.0	0.0462
416.0	0.0456
419.0	0.0452
422.0	0.0448
425.0	0.0444
428.0	0.0441
431.0	0.0440
434.0	0.0437
437.0	0.0434
440.0	0.0432
443.0	0.0431
446.0	0.0429
449.0	0.0428
452.0	0.0426
455.0	0.0424
458.0	0.0421
461.0	0.0422
464.0	0.0422
467.0	0.0419
470.0	0.0421
473.0	0.0421
476.0	0.0419
479.0	0.0418
482.0	0.0417
485.0	0.0415
488.0	0.0414
491.0	0.0414
494.0	0.0412
497.0	0.0412
500.0	0.0410
503.0	0.0409
506.0	0.0409
509.0	0.0408
512.0	0.0408
515.0	0.0407
518.0	0.0406
521.0	0.0405
524.0	0.0405
527.0	0.0406
530.0	0.0404
533.0	0.0401
536.0	0.0400
539.0	0.0401
542.0	0.0400
545.0	0.0398
548.0	0.0399
551.0	0.0398
554.0	0.0398
557.0	0.0397
560.0	0.0396
563.0	0.0394
566.0	0.0395
569.0	0.0395
572.0	0.0395
575.0	0.0395
578.0	0.0395
581.0	0.0395
584.0	0.0396
587.0	0.0397
590.0	0.0396
593.0	0.0395
596.0	0.0397
599.0	0.0396
602.0	0.0397
605.0	0.0398
608.0	0.0397
611.0	0.0396
614.0	0.0397
617.0	0.0396
620.0	0.0396
623.0	0.0397
626.0	0.0396
629.0	0.0396
632.0	0.0396
635.0	0.0395
638.0	0.0396
641.0	0.0396
644.0	0.0395
647.0	0.0397
650.0	0.0396
653.0	0.0397
656.0	0.0398
659.0	0.0401
662.0	0.0401
665.0	0.0400
668.0	0.0398
671.0	0.0397
674.0	0.0395
677.0	0.0396
680.0	0.0398
683.0	0.0398
686.0	0.0397
689.0	0.0398
692.0	0.0398
695.0	0.0399
698.0	0.0401
701.0	0.0401
704.0	0.0405
707.0	0.0406
710.0	0.0408
713.0	0.0411
716.0	0.0418
719.0	0.0423
722.0	0.0428
725.0	0.0437
728.0	0.0445
731.0	0.0459
734.0	0.0474
737.0	0.0483
740.0	0.0487
743.0	0.0489
746.0	0.0489
749.0	0.0489
752.0	0.0491
755.0	0.0492
758.0	0.0490
761.0	0.0490
764.0	0.0489
767.0	0.0488
770.0	0.0486
773.0	0.0486
776.0	0.0485
779.0	0.0483
782.0	0.0480
785.0	0.0476
788.0	0.0472
791.0	0.0468
794.0	0.0466
797.0	0.0463
800.0	0.0463