File: carbon_dots_spectra/csv/1_3k_water.txt
'1_3k_water.spc - RawData'
'Wavelength nm.'	'Abs.'
200.0	0.1493
203.0	0.1336
206.0	0.1200
209.0	0.1109
212.0	0.1042
215.0	0.0984
218.0	0.0942
221.0	0.0912
224.0	0.0882
227.0	0.0852
230.0	0.0814
233.0	0.0782
236.0	0.0745
239.0	0.0720
242.0	0.0700
245.0	0.0687
248.0	0.0673
251.0	0.0662
254.0	0.0654
257.0	0.0646
260.0	0.0637
263.0	0.0625
266.0	0.0623
269.0	0.0615
272.0	0.0612
275.0	0.0605
278.0	0.0597
281.0	0.0591
284.0	0.0588
287.0	0.0582
290.0	0.0570
293.0	0.0555
296.0	0.0551
299.0	0.0543
302.0	0.0531
305.0	0.0530
308.0	0.0524
311.0	0.0521
314.0	0.0517
317.0	0.0515
320.0	0.0505
323.0	0.0505
326.0	0.0499
329.0	0.0496
332.0	0.0495
335.0	0.0487
338.0	0.0482
341.0	0.0483
344.0	0.0481
347.0	0.0474
350.0	0.0473
353.0	0.0472
356.0	0.0468
359.0	0.0470
362.0	0.0465
365.0	0.0463
368.0	0.0462
371.0	0.0460
374.0	0.0454
377.0	0.0458
380.0	0.0454
383.0	0.0452
386.0	0.0451
389.0	0.0447
392.0	0.0446
395.0	0.0444
398.0	0.0445
401.0	0.0443
404.0	0.0440
407.0	0.0440
410.0	0.0439
413.0	0.0437
416.0	0.0434
419.0	0.0434
422.0	0.0432
425.0	0.0430
428.0	0.0429
431.0	0.0428
434.0	0.0426
437.0	0.0426
440.0	0.0425
443.0	0.0423
446.0	0.0422
449.0	0.0422
452.0	0.0421
455.0	0.0419
458.0	0.0417
461.0	0.0418
464.0	0.0416
467.0	0.0416
470.0	0.0417
473.0	0.0418
476.0	0.0418
479.0	0.0416
482.0	0.0416
485.0	0.0414
488.0	0.0413
491.0	0.0412
494.0	0.0410
497.0	0.0411
500.0	0.0409
503.0	0.0409
506.0	0.0410
509.0	0.0408
512.0	0.0407
515.0	0.0407
518.0	0.0405
521.0	0.0405
524.0	0.0405
527.0	0.0405
530.0	0.0404
533.0	0.0401
536.0	0.0401
539.0	0.0401
542.0	0.0400
545.0	0.0398
548.0	0.0398
551.0	0.0398
554.0	0.0398
557.0	0.0396
560.0	0.0396
563.0	0.0396
566.0	0.0397
569.0	0.0395
572.0	0.0394
575.0	0.0395
578.0	0.0395
581.0	0.0394
584.0	0.0395
587.0	0.0396
590.0	0.0395
593.0	0.0396
596.0	0.0396
599.0	0.0396
602.0	0.0398
605.0	0.0399
608.0	0.0397
611.0	0.0396
614.0	0.0398
617.0	0.0397
620.0	0.0396
623.0	0.0397
626.0	0.0396
629.0	0.0397
632.0	0.0394
635.0	0.0395
638.0	0.0396
641.0	0.0396
644.0	0.0395
647.0	0.0396
650.0	0.0395
653.0	0.0396
656.0	0.0396
659.0	0.0399
662.0	0.0399
665.0	0.0398
668.0	0.0397
671.0	0.0397
674.0	0.0397
677.0	0.0397
680.0	0.0397
683.0	0.0397
686.0	0.0396
689.0	0.0396
692.0	0.0398
695.0	0.0399
698.0	0.0399
701.0	0.0400
704.0	0.0403
707.0	0.0406
710.0	0.0407
713.0	0.0412
716.0	0.0416
719.0	0.0421
722.0	0.0427
725.0	0.0435
728.0	0.0445
731.0	0.0457
734.0	0.0473
737.0	0.0481
740.0	0.0486
743.0	0.0488
746.0	0.0487
749.0	0.0488
752.0	0.0488
755.0	0.0488
758.0	0.0489
761.0	0.0488
764.0	0.0486
767.0	0.0486
770.0	0.0485
773.0	0.0484
776.0	0.0484
779.0	0.0479
782.0	0.0478
785.0	0.0474
788.0	0.0470
791.0	0.0467
794.0	0.0462
797.0	0.0459
800.0	0.0461