File: carbon_dots_spectra/csv/2_3k_water_5_cd.txt
'2_3k_water_5_cd.spc - RawData'
'Wavelength nm.'	'Abs.'
200.0	0.3583
203.0	0.3189
206.0	0.2772
209.0	0.2421
212.0	0.2132
215.0	0.1901
218.0	0.1715
221.0	0.1584
224.0	0.1474
227.0	0.1399
230.0	0.1337
233.0	0.1295
236.0	0.1257
239.0	0.1222
242.0	0.1188
245.0	0.1155
248.0	0.1115
251.0	0.1069
254.0	0.1013
257.0	0.0949
260.0	0.0890
263.0	0.0835
266.0	0.0795
269.0	0.0764
272.0	0.0742
275.0	0.0723
278.0	0.0709
281.0	0.0696
284.0	0.0685
287.0	0.0680
290.0	0.0662
293.0	0.0635
296.0	0.0642
299.0	0.0638
302.0	0.0628
305.0	0.0628
308.0	0.0634
311.0	0.0635
314.0	0.0644
317.0	0.0649
320.0	0.0651
323.0	0.0660
326.0	0.0669
329.0	0.0677
332.0	0.0683
335.0	0.0683
338.0	0.0689
341.0	0.0692
344.0	0.0692
347.0	0.0687
350.0	0.0684
353.0	0.0678
356.0	0.0671
359.0	0.0665
362.0	0.0650
365.0	0.0644
368.0	0.0635
371.0	0.0624
374.0	0.0611
377.0	0.0606
380.0	0.0595
383.0	0.0585
386.0	0.0575
389.0	0.0563
392.0	0.0551
395.0	0.0539
398.0	0.0529
401.0	0.0516
404.0	0.0507
407.0	0.0496
410.0	0.0487
413.0	0.0476
416.0	0.0466
419.0	0.0459
422.0	0.0452
425.0	0.0447
428.0	0.0443
431.0	0.0439
434.0	0.0436
437.0	0.0432
440.0	0.0429
443.0	0.0427
446.0	0.0426
449.0	0.0422
452.0	0.0420
455.0	0.0418
458.0	0.0414
461.0	0.0415
464.0	0.0412
467.0	0.0409
470.0	0.0407
473.0	0.0408
476.0	0.0405
479.0	0.0402
482.0	0.0402
485.0	0.0400
488.0	0.0399
491.0	0.0398
494.0	0.0397
497.0	0.0396
500.0	0.0393
503.0	0.0393
506.0	0.0394
509.0	0.0391
512.0	0.0389
515.0	0.0388
518.0	0.0387
521.0	0.0385
524.0	0.0385
527.0	0.0385
530.0	0.0387
533.0	0.0385
536.0	0.0383
539.0	0.0384
542.0	0.0383
545.0	0.0382
548.0	0.0380
551.0	0.0380
554.0	0.0381
557.0	0.0380
560.0	0.0379
563.0	0.0378
566.0	0.0379
569.0	0.0378
572.0	0.0378
575.0	0.0379
578.0	0.0378
581.0	0.0379
584.0	0.0381
587.0	0.0381
590.0	0.0380
593.0	0.0380
596.0	0.0380
599.0	0.0381
602.0	0.0384
605.0	0.0384
608.0	0.0382
611.0	0.0383
614.0	0.0384
617.0	0.0383
620.0	0.0382
623.0	0.0382
626.0	0.0382
629.0	0.0385
632.0	0.0382
635.0	0.0384
638.0	0.0385
641.0	0.0384
644.0	0.0382
647.0	0.0385
650.0	0.0384
653.0	0.0385
656.0	0.0387
659.0	0.0392
662.0	0.0391
665.0	0.0390
668.0	0.0385
671.0	0.0387
674.0	0.0385
677.0	0.0384
680.0	0.0388
683.0	0.0387
686.0	0.0386
689.0	0.0388
692.0	0.0389
695.0	0.0390
698.0	0.0392
701.0	0.0393
704.0	0.0399
707.0	0.0402
710.0	0.0402
713.0	0.0406
716.0	0.0413
719.0	0.0413
722.0	0.0424
725.0	0.0431
728.0	0.0439
731.0	0.0453
734.0	0.0466
737.0	0.0478
740.0	0.0482
743.0	0.0484
746.0	0.0482
749.0	0.0484
752.0	0.0485
755.0	0.0485
758.0	0.0487
761.0	0.0486
764.0	0.0485
767.0	0.0484
770.0	0.0484
773.0	0.0482
776.0	0.0485
779.0	0.0480
782.0	0.0481
785.0	0.0476
788.0	0.0474
791.0	0.0471
794.0	0.0465
797.0	0.0466
800.0	0.0465