File: carbon_dots_spectra/csv/2_3k_water_10_cd.txt
'2_3k_water_10_cd.spc - RawData'
'Wavelength nm.'	'Abs.'
200.0	0.6893
203.0	0.6093
206.0	0.5221
209.0	0.4473
212.0	0.3881
215.0	0.3405
218.0	0.3025
221.0	0.2745
224.0	0.2535
227.0	0.2383
230.0	0.2266
233.0	0.2186
236.0	0.2114
239.0	0.2054
242.0	0.1990
245.0	0.1918
248.0	0.1833
251.0	0.1742
254.0	0.1624
257.0	0.1495
260.0	0.1373
263.0	0.1267
266.0	0.1184
269.0	0.1119
272.0	0.1074
275.0	0.1036
278.0	0.1007
281.0	0.0981
284.0	0.0963
287.0	0.0951
290.0	0.0944
293.0	0.0935
296.0	0.0937
299.0	0.0936
302.0	0.0931
305.0	0.0941
308.0	0.0948
311.0	0.0964
314.0	0.0982
317.0	0.1003
320.0	0.1020
323.0	0.1044
326.0	0.1066
329.0	0.1089
332.0	0.1107
335.0	0.1121
338.0	0.1133
341.0	0.1142
344.0	0.1144
347.0	0.1141
350.0	0.1134
353.0	0.1123
356.0	0.1107
359.0	0.1091
362.0	0.1069
365.0	0.1053
368.0	0.1032
371.0	0.1008
374.0	0.0982
377.0	0.0962
380.0	0.0936
383.0	0.0912
386.0	0.0887
389.0	0.0858
392.0	0.0829
395.0	0.0797
398.0	0.0769
401.0	0.0738
404.0	0.0710
407.0	0.0683
410.0	0.0656
413.0	0.0633
416.0	0.0611
419.0	0.0595
422.0	0.0581
425.0	0.0566
428.0	0.0555
431.0	0.0546
434.0	0.0538
437.0	0.0530
440.0	0.0522
443.0	0.0515
446.0	0.0510
449.0	0.0503
452.0	0.0497
455.0	0.0491
458.0	0.0485
461.0	0.0480
464.0	0.0475
467.0	0.0468
470.0	0.0463
473.0	0.0459
476.0	0.0456
479.0	0.0448
482.0	0.0445
485.0	0.0441
488.0	0.0438
491.0	0.0436
494.0	0.0432
497.0	0.0430
500.0	0.0427
503.0	0.0423
506.0	0.0422
509.0	0.0418
512.0	0.0416
515.0	0.0413
518.0	0.0411
521.0	0.0409
524.0	0.0406
527.0	0.0406
530.0	0.0406
533.0	0.0402
536.0	0.0400
539.0	0.0399
542.0	0.0400
545.0	0.0396
548.0	0.0394
551.0	0.0395
554.0	0.0393
557.0	0.0392
560.0	0.0390
563.0	0.0389
566.0	0.0391
569.0	0.0387
572.0	0.0389
575.0	0.0388
578.0	0.0387
581.0	0.0388
584.0	0.0390
587.0	0.0388
590.0	0.0387
593.0	0.0387
596.0	0.0386
599.0	0.0387
602.0	0.0390
605.0	0.0389
608.0	0.0386
611.0	0.0388
614.0	0.0390
617.0	0.0388
620.0	0.0386
623.0	0.0388
626.0	0.0387
629.0	0.0387
632.0	0.0386
635.0	0.0389
638.0	0.0389
641.0	0.0388
644.0	0.0386
647.0	0.0389
650.0	0.0386
653.0	0.0387
656.0	0.0391
659.0	0.0395
662.0	0.0395
665.0	0.0392
668.0	0.0389
671.0	0.0388
674.0	0.0387
677.0	0.0388
680.0	0.0388
683.0	0.0389
686.0	0.0387
689.0	0.0391
692.0	0.0392
695.0	0.0391
698.0	0.0393
701.0	0.0396
704.0	0.0402
707.0	0.0405
710.0	0.0402
713.0	0.0410
716.0	0.0416
719.0	0.0417
722.0	0.0426
725.0	0.0432
728.0	0.0439
731.0	0.0454
734.0	0.0467
737.0	0.0477
740.0	0.0480
743.0	0.0484
746.0	0.0482
749.0	0.0485
752.0	0.0485
755.0	0.0486
758.0	0.0488
761.0	0.0487
764.0	0.0484
767.0	0.0484
770.0	0.0487
773.0	0.0484
776.0	0.0487
779.0	0.0482
782.0	0.0483
785.0	0.0475
788.0	0.0473
791.0	0.0470
794.0	0.0464
797.0	0.0466
800.0	0.0462