File: carbon_dots_spectra/csv/2_3k_water.txt
'2_3k_water.spc - RawData'
'Wavelength nm.'	'Abs.'
200.0	0.0860
203.0	0.0778
206.0	0.0714
209.0	0.0672
212.0	0.0644
215.0	0.0615
218.0	0.0591
221.0	0.0574
224.0	0.0558
227.0	0.0545
230.0	0.0531
233.0	0.0523
236.0	0.0509
239.0	0.0501
242.0	0.0496
245.0	0.0486
248.0	0.0480
251.0	0.0475
254.0	0.0472
257.0	0.0465
260.0	0.0463
263.0	0.0457
266.0	0.0456
269.0	0.0452
272.0	0.0451
275.0	0.0449
278.0	0.0448
281.0	0.0445
284.0	0.0440
287.0	0.0438
290.0	0.0436
293.0	0.0432
296.0	0.0430
299.0	0.0428
302.0	0.0419
305.0	0.0419
308.0	0.0417
311.0	0.0412
314.0	0.0415
317.0	0.0414
320.0	0.0407
323.0	0.0410
326.0	0.0406
329.0	0.0405
332.0	0.0402
335.0	0.0399
338.0	0.0399
341.0	0.0397
344.0	0.0397
347.0	0.0395
350.0	0.0393
353.0	0.0394
356.0	0.0393
359.0	0.0394
362.0	0.0392
365.0	0.0390
368.0	0.0389
371.0	0.0388
374.0	0.0385
377.0	0.0389
380.0	0.0388
383.0	0.0385
386.0	0.0388
389.0	0.0384
392.0	0.0384
395.0	0.0383
398.0	0.0384
401.0	0.0383
404.0	0.0383
407.0	0.0383
410.0	0.0383
413.0	0.0381
416.0	0.0379
419.0	0.0379
422.0	0.0379
425.0	0.0377
428.0	0.0377
431.0	0.0379
434.0	0.0378
437.0	0.0377
440.0	0.0375
443.0	0.0377
446.0	0.0376
449.0	0.0376
452.0	0.0376
455.0	0.0374
458.0	0.0374
461.0	0.0376
464.0	0.0376
467.0	0.0376
470.0	0.0376
473.0	0.0377
476.0	0.0377
479.0	0.0377
482.0	0.0378
485.0	0.0375
488.0	0.0374
491.0	0.0375
494.0	0.0374
497.0	0.0375
500.0	0.0374
503.0	0.0374
506.0	0.0375
509.0	0.0374
512.0	0.0374
515.0	0.0375
518.0	0.0374
521.0	0.0373
524.0	0.0375
527.0	0.0375
530.0	0.0374
533.0	0.0373
536.0	0.0371
539.0	0.0372
542.0	0.0373
545.0	0.0371
548.0	0.0371
551.0	0.0371
554.0	0.0372
557.0	0.0371
560.0	0.0372
563.0	0.0371
566.0	0.0372
569.0	0.0372
572.0	0.0372
575.0	0.0373
578.0	0.0373
581.0	0.0372
584.0	0.0373
587.0	0.0373
590.0	0.0373
593.0	0.0375
596.0	0.0375
599.0	0.0377
602.0	0.0380
605.0	0.0380
608.0	0.0379
611.0	0.0379
614.0	0.0381
617.0	0.0380
620.0	0.0379
623.0	0.0381
626.0	0.0380
629.0	0.0381
632.0	0.0380
635.0	0.0380
638.0	0.0381
641.0	0.0380
644.0	0.0380
647.0	0.0382
650.0	0.0381
653.0	0.0382
656.0	0.0382
659.0	0.0385
662.0	0.0386
665.0	0.0388
668.0	0.0387
671.0	0.0386
674.0	0.0386
677.0	0.0386
680.0	0.0385
683.0	0.0385
686.0	0.0386
689.0	0.0388
692.0	0.0388
695.0	0.0389
698.0	0.0391
701.0	0.0391
704.0	0.0395
707.0	0.0397
710.0	0.0399
713.0	0.0404
716.0	0.0408
719.0	0.0414
722.0	0.0422
725.0	0.0430
728.0	0.0438
731.0	0.0452
734.0	0.0466
737.0	0.0478
740.0	0.0482
743.0	0.0485
746.0	0.0484
749.0	0.0484
752.0	0.0485
755.0	0.0486
758.0	0.0485
761.0	0.0485
764.0	0.0483
767.0	0.0483
770.0	0.0482
773.0	0.0480
776.0	0.0480
779.0	0.0478
782.0	0.0476
785.0	0.0473
788.0	0.0468
791.0	0.0466
794.0	0.0463
797.0	0.0461
800.0	0.0459