File: carbon_dots_spectra/csv/acetone_AS15.2.txt
'aceton_AS15.2.spc - RawData'
'Wavelength nm.'	'Abs.'
310.0	6.0000
313.0	6.0000
316.0	5.4770
319.0	5.4416
322.0	4.5367
325.0	3.2249
328.0	2.4757
331.0	2.0155
334.0	1.7283
337.0	1.5299
340.0	1.3868
343.0	1.2697
346.0	1.1674
349.0	1.0744
352.0	0.9873
355.0	0.9038
358.0	0.8259
361.0	0.7512
364.0	0.6850
367.0	0.6263
370.0	0.5748
373.0	0.5318
376.0	0.4945
379.0	0.4651
382.0	0.4450
385.0	0.4320
388.0	0.4258
391.0	0.4250
394.0	0.4274
397.0	0.4320
400.0	0.4390
403.0	0.4479
406.0	0.4602
409.0	0.4750
412.0	0.4895
415.0	0.5038
418.0	0.5174
421.0	0.5291
424.0	0.5406
427.0	0.5535
430.0	0.5669
433.0	0.5783
436.0	0.5867
439.0	0.5914
442.0	0.5921
445.0	0.5879
448.0	0.5782
451.0	0.5653
454.0	0.5486
457.0	0.5257
460.0	0.4944
463.0	0.4584
466.0	0.4237
469.0	0.4001
472.0	0.3900
475.0	0.3915
478.0	0.4005
481.0	0.4114
484.0	0.4170
487.0	0.4103
490.0	0.3842
493.0	0.3388
496.0	0.2840
499.0	0.2300
502.0	0.1855
505.0	0.1512
508.0	0.1253
511.0	0.1069
514.0	0.0930
517.0	0.0819
520.0	0.0733
523.0	0.0662
526.0	0.0608
529.0	0.0566
532.0	0.0524
535.0	0.0495
538.0	0.0473
541.0	0.0453
544.0	0.0437
547.0	0.0423
550.0	0.0414
553.0	0.0404
556.0	0.0394
559.0	0.0386
562.0	0.0378
565.0	0.0373
568.0	0.0364
571.0	0.0362
574.0	0.0361
577.0	0.0362
580.0	0.0363
583.0	0.0365
586.0	0.0361
589.0	0.0355
592.0	0.0348
595.0	0.0344
598.0	0.0342
601.0	0.0339
604.0	0.0337
607.0	0.0336
610.0	0.0335
613.0	0.0335
616.0	0.0335
619.0	0.0335
622.0	0.0335
625.0	0.0335
628.0	0.0333
631.0	0.0332
634.0	0.0329
637.0	0.0327
640.0	0.0326
643.0	0.0325
646.0	0.0323
649.0	0.0323
652.0	0.0323
655.0	0.0324
658.0	0.0325
661.0	0.0326
664.0	0.0323
667.0	0.0321
670.0	0.0322
673.0	0.0318
676.0	0.0319
679.0	0.0318
682.0	0.0320
685.0	0.0317
688.0	0.0318
691.0	0.0319
694.0	0.0317
697.0	0.0317
700.0	0.0316
703.0	0.0316
706.0	0.0317
709.0	0.0317
712.0	0.0317
715.0	0.0317
718.0	0.0320
721.0	0.0324
724.0	0.0329
727.0	0.0337
730.0	0.0336
733.0	0.0334
736.0	0.0333
739.0	0.0332
742.0	0.0333
745.0	0.0333
748.0	0.0325
751.0	0.0320
754.0	0.0317
757.0	0.0314
760.0	0.0314
763.0	0.0314
766.0	0.0314
769.0	0.0313
772.0	0.0309
775.0	0.0308
778.0	0.0311
781.0	0.0316
784.0	0.0324
787.0	0.0330
790.0	0.0332
793.0	0.0333
796.0	0.0334
799.0	0.0331
802.0	0.0392
805.0	0.0392
808.0	0.0392
811.0	0.0391
814.0	0.0391
817.0	0.0388
820.0	0.0385
823.0	0.0383
826.0	0.0380
829.0	0.0377
832.0	0.0325
835.0	0.0325
838.0	0.0324
841.0	0.0325
844.0	0.0326
847.0	0.0327
850.0	0.0327
853.0	0.0326
856.0	0.0327
859.0	0.0334
862.0	0.0342
865.0	0.0350
868.0	0.0357
871.0	0.0362
874.0	0.0368
877.0	0.0380
880.0	0.0400
883.0	0.0426
886.0	0.0462
889.0	0.0516
892.0	0.0567
895.0	0.0571
898.0	0.0547
901.0	0.0540
904.0	0.0551
907.0	0.0558
910.0	0.0545
913.0	0.0505
916.0	0.0446
919.0	0.0391
922.0	0.0358
925.0	0.0339
928.0	0.0331
931.0	0.0326
934.0	0.0321
937.0	0.0318
940.0	0.0315
943.0	0.0315
946.0	0.0315
949.0	0.0317
952.0	0.0317
955.0	0.0319
958.0	0.0321
961.0	0.0323
964.0	0.0327
967.0	0.0331
970.0	0.0337
973.0	0.0345
976.0	0.0352
979.0	0.0360
982.0	0.0375
985.0	0.0391
988.0	0.0406
991.0	0.0419
994.0	0.0437
997.0	0.0455
1000.0	0.0467