File: carbon_dots_spectra/csv/chcl3_AS15.2.txt
'chcl3_AS15.2.spc - RawData'
'Wavelength nm.'	'Abs.'
310.0	0.7323
312.0	0.5840
314.0	0.4511
316.0	0.3432
318.0	0.2625
320.0	0.2058
322.0	0.1700
324.0	0.1478
326.0	0.1339
328.0	0.1249
330.0	0.1189
332.0	0.1148
334.0	0.1118
336.0	0.1094
338.0	0.1073
340.0	0.1057
342.0	0.1046
344.0	0.1040
346.0	0.1036
348.0	0.1035
350.0	0.1042
352.0	0.1047
354.0	0.1055
356.0	0.1065
358.0	0.1078
360.0	0.1093
362.0	0.1114
364.0	0.1139
366.0	0.1162
368.0	0.1191
370.0	0.1225
372.0	0.1258
374.0	0.1293
376.0	0.1331
378.0	0.1374
380.0	0.1427
382.0	0.1485
384.0	0.1546
386.0	0.1611
388.0	0.1679
390.0	0.1746
392.0	0.1811
394.0	0.1872
396.0	0.1937
398.0	0.2007
400.0	0.2090
402.0	0.2182
404.0	0.2286
406.0	0.2401
408.0	0.2522
410.0	0.2626
412.0	0.2707
414.0	0.2768
416.0	0.2805
418.0	0.2826
420.0	0.2842
422.0	0.2867
424.0	0.2915
426.0	0.2990
428.0	0.3085
430.0	0.3190
432.0	0.3286
434.0	0.3354
436.0	0.3383
438.0	0.3345
440.0	0.3240
442.0	0.3072
444.0	0.2866
446.0	0.2646
448.0	0.2439
450.0	0.2263
452.0	0.2129
454.0	0.2032
456.0	0.1965
458.0	0.1918
460.0	0.1876
462.0	0.1831
464.0	0.1778
466.0	0.1715
468.0	0.1653
470.0	0.1597
472.0	0.1552
474.0	0.1521
476.0	0.1510
478.0	0.1510
480.0	0.1524
482.0	0.1542
484.0	0.1563
486.0	0.1581
488.0	0.1587
490.0	0.1574
492.0	0.1536
494.0	0.1472
496.0	0.1386
498.0	0.1282
500.0	0.1169
502.0	0.1058
504.0	0.0953
506.0	0.0856
508.0	0.0771
510.0	0.0701
512.0	0.0644
514.0	0.0598
516.0	0.0558
518.0	0.0529
520.0	0.0506
522.0	0.0486
524.0	0.0473
526.0	0.0465
528.0	0.0458
530.0	0.0448
532.0	0.0440
534.0	0.0436
536.0	0.0433
538.0	0.0430
540.0	0.0428
542.0	0.0425
544.0	0.0423
546.0	0.0421
548.0	0.0421
550.0	0.0419
552.0	0.0418
554.0	0.0417
556.0	0.0415
558.0	0.0412
560.0	0.0412
562.0	0.0410
564.0	0.0411
566.0	0.0407
568.0	0.0406
570.0	0.0405
572.0	0.0405
574.0	0.0404
576.0	0.0403
578.0	0.0404
580.0	0.0404
582.0	0.0405
584.0	0.0404
586.0	0.0404
588.0	0.0403
590.0	0.0399
592.0	0.0397
594.0	0.0398
596.0	0.0397
598.0	0.0395
600.0	0.0393
602.0	0.0392
604.0	0.0391
606.0	0.0392
608.0	0.0391
610.0	0.0388
612.0	0.0389
614.0	0.0387
616.0	0.0386
618.0	0.0387
620.0	0.0387
622.0	0.0386
624.0	0.0386
626.0	0.0385
628.0	0.0384
630.0	0.0384
632.0	0.0384
634.0	0.0384
636.0	0.0384
638.0	0.0383
640.0	0.0383
642.0	0.0383
644.0	0.0383
646.0	0.0382
648.0	0.0383
650.0	0.0383
652.0	0.0384
654.0	0.0383
656.0	0.0384
658.0	0.0386
660.0	0.0389
662.0	0.0388
664.0	0.0386
666.0	0.0384
668.0	0.0383
670.0	0.0383
672.0	0.0381
674.0	0.0379
676.0	0.0377
678.0	0.0379
680.0	0.0383
682.0	0.0384
684.0	0.0383
686.0	0.0382
688.0	0.0381
690.0	0.0381
692.0	0.0381
694.0	0.0379
696.0	0.0380
698.0	0.0380
700.0	0.0381
702.0	0.0380
704.0	0.0378
706.0	0.0381
708.0	0.0383
710.0	0.0380
712.0	0.0382
714.0	0.0384
716.0	0.0386
718.0	0.0387
720.0	0.0391
722.0	0.0390
724.0	0.0388
726.0	0.0386
728.0	0.0384
730.0	0.0382
732.0	0.0383
734.0	0.0386
736.0	0.0385
738.0	0.0383
740.0	0.0385
742.0	0.0384
744.0	0.0384
746.0	0.0385
748.0	0.0384
750.0	0.0384
752.0	0.0385
754.0	0.0386
756.0	0.0386
758.0	0.0385
760.0	0.0386
762.0	0.0387
764.0	0.0387
766.0	0.0385
768.0	0.0387
770.0	0.0386
772.0	0.0386
774.0	0.0387
776.0	0.0388
778.0	0.0390
780.0	0.0392
782.0	0.0394
784.0	0.0394
786.0	0.0395
788.0	0.0396
790.0	0.0393
792.0	0.0393
794.0	0.0396
796.0	0.0400
798.0	0.0405
800.0	0.0409