File: carbon_dots_spectra/csv/etoh_AS15.2.txt
'etoh_AS15.2.spc - RawData'
'Wavelength nm.'	'Abs.'
310.0	0.6850
312.0	0.5456
314.0	0.4298
316.0	0.3385
318.0	0.2708
320.0	0.2212
322.0	0.1863
324.0	0.1606
326.0	0.1424
328.0	0.1290
330.0	0.1191
332.0	0.1114
334.0	0.1051
336.0	0.1002
338.0	0.0961
340.0	0.0927
342.0	0.0901
344.0	0.0880
346.0	0.0867
348.0	0.0859
350.0	0.0864
352.0	0.0867
354.0	0.0876
356.0	0.0890
358.0	0.0909
360.0	0.0933
362.0	0.0961
364.0	0.0993
366.0	0.1029
368.0	0.1071
370.0	0.1120
372.0	0.1175
374.0	0.1236
376.0	0.1302
378.0	0.1377
380.0	0.1465
382.0	0.1556
384.0	0.1652
386.0	0.1753
388.0	0.1863
390.0	0.1977
392.0	0.2098
394.0	0.2225
396.0	0.2363
398.0	0.2508
400.0	0.2664
402.0	0.2825
404.0	0.2992
406.0	0.3162
408.0	0.3331
410.0	0.3483
412.0	0.3616
414.0	0.3745
416.0	0.3876
418.0	0.4021
420.0	0.4176
422.0	0.4344
424.0	0.4527
426.0	0.4724
428.0	0.4916
430.0	0.5092
432.0	0.5232
434.0	0.5326
436.0	0.5373
438.0	0.5369
440.0	0.5340
442.0	0.5306
444.0	0.5292
446.0	0.5313
448.0	0.5364
450.0	0.5445
452.0	0.5531
454.0	0.5617
456.0	0.5680
458.0	0.5689
460.0	0.5610
462.0	0.5434
464.0	0.5153
466.0	0.4775
468.0	0.4347
470.0	0.3917
472.0	0.3515
474.0	0.3155
476.0	0.2867
478.0	0.2645
480.0	0.2490
482.0	0.2384
484.0	0.2311
486.0	0.2258
488.0	0.2210
490.0	0.2153
492.0	0.2073
494.0	0.1969
496.0	0.1837
498.0	0.1690
500.0	0.1536
502.0	0.1388
504.0	0.1250
506.0	0.1127
508.0	0.1024
510.0	0.0941
512.0	0.0873
514.0	0.0817
516.0	0.0765
518.0	0.0721
520.0	0.0682
522.0	0.0647
524.0	0.0618
526.0	0.0592
528.0	0.0567
530.0	0.0542
532.0	0.0520
534.0	0.0502
536.0	0.0485
538.0	0.0471
540.0	0.0458
542.0	0.0446
544.0	0.0436
546.0	0.0426
548.0	0.0419
550.0	0.0412
552.0	0.0405
554.0	0.0401
556.0	0.0394
558.0	0.0388
560.0	0.0384
562.0	0.0379
564.0	0.0376
566.0	0.0372
568.0	0.0367
570.0	0.0364
572.0	0.0364
574.0	0.0363
576.0	0.0363
578.0	0.0365
580.0	0.0365
582.0	0.0366
584.0	0.0365
586.0	0.0362
588.0	0.0359
590.0	0.0353
592.0	0.0350
594.0	0.0347
596.0	0.0344
598.0	0.0340
600.0	0.0337
602.0	0.0335
604.0	0.0333
606.0	0.0333
608.0	0.0332
610.0	0.0330
612.0	0.0329
614.0	0.0328
616.0	0.0328
618.0	0.0327
620.0	0.0326
622.0	0.0327
624.0	0.0327
626.0	0.0327
628.0	0.0328
630.0	0.0328
632.0	0.0327
634.0	0.0327
636.0	0.0326
638.0	0.0324
640.0	0.0324
642.0	0.0323
644.0	0.0322
646.0	0.0322
648.0	0.0323
650.0	0.0321
652.0	0.0320
654.0	0.0320
656.0	0.0320
658.0	0.0323
660.0	0.0326
662.0	0.0324
664.0	0.0320
666.0	0.0316
668.0	0.0317
670.0	0.0318
672.0	0.0315
674.0	0.0315
676.0	0.0316
678.0	0.0316
680.0	0.0320
682.0	0.0320
684.0	0.0318
686.0	0.0317
688.0	0.0319
690.0	0.0319
692.0	0.0319
694.0	0.0318
696.0	0.0318
698.0	0.0318
700.0	0.0319
702.0	0.0318
704.0	0.0319
706.0	0.0322
708.0	0.0323
710.0	0.0322
712.0	0.0323
714.0	0.0323
716.0	0.0323
718.0	0.0326
720.0	0.0328
722.0	0.0328
724.0	0.0330
726.0	0.0334
728.0	0.0336
730.0	0.0341
732.0	0.0345
734.0	0.0354
736.0	0.0361
738.0	0.0366
740.0	0.0374
742.0	0.0376
744.0	0.0374
746.0	0.0371
748.0	0.0367
750.0	0.0364
752.0	0.0362
754.0	0.0364
756.0	0.0365
758.0	0.0365
760.0	0.0366
762.0	0.0367
764.0	0.0368
766.0	0.0368
768.0	0.0367
770.0	0.0365
772.0	0.0364
774.0	0.0362
776.0	0.0362
778.0	0.0362
780.0	0.0365
782.0	0.0367
784.0	0.0371
786.0	0.0372
788.0	0.0375
790.0	0.0373
792.0	0.0371
794.0	0.0375
796.0	0.0378
798.0	0.0377
800.0	0.0380