File: carbon_dots_spectra/csv/toluene_AS15.2.txt
'toluene_AS15.2.spc - RawData'
'Wavelength nm.'	'Abs.'
310.0	1.2164
313.0	0.8956
316.0	0.6559
319.0	0.4646
322.0	0.3246
325.0	0.2415
328.0	0.1994
331.0	0.1763
334.0	0.1617
337.0	0.1526
340.0	0.1462
343.0	0.1424
346.0	0.1394
349.0	0.1351
352.0	0.1305
355.0	0.1258
358.0	0.1222
361.0	0.1199
364.0	0.1180
367.0	0.1152
370.0	0.1115
373.0	0.1071
376.0	0.1030
379.0	0.1001
382.0	0.0994
385.0	0.0989
388.0	0.0986
391.0	0.0986
394.0	0.0993
397.0	0.1014
400.0	0.1056
403.0	0.1105
406.0	0.1152
409.0	0.1178
412.0	0.1170
415.0	0.1145
418.0	0.1134
421.0	0.1146
424.0	0.1186
427.0	0.1245
430.0	0.1294
433.0	0.1289
436.0	0.1203
439.0	0.1051
442.0	0.0884
445.0	0.0747
448.0	0.0654
451.0	0.0595
454.0	0.0561
457.0	0.0540
460.0	0.0527
463.0	0.0517
466.0	0.0510
469.0	0.0506
472.0	0.0501
475.0	0.0497
478.0	0.0492
481.0	0.0491
484.0	0.0488
487.0	0.0486
490.0	0.0481
493.0	0.0476
496.0	0.0470
499.0	0.0463
502.0	0.0457
505.0	0.0451
508.0	0.0443
511.0	0.0438
514.0	0.0437
517.0	0.0433
520.0	0.0430
523.0	0.0429
526.0	0.0429
529.0	0.0429
532.0	0.0423
535.0	0.0420
538.0	0.0420
541.0	0.0419
544.0	0.0419
547.0	0.0417
550.0	0.0416
553.0	0.0415
556.0	0.0415
559.0	0.0415
562.0	0.0415
565.0	0.0414
568.0	0.0412
571.0	0.0412
574.0	0.0411
577.0	0.0411
580.0	0.0410
583.0	0.0412
586.0	0.0411
589.0	0.0412
592.0	0.0411
595.0	0.0410
598.0	0.0410
601.0	0.0410
604.0	0.0412
607.0	0.0411
610.0	0.0411
613.0	0.0409
616.0	0.0406
619.0	0.0406
622.0	0.0406
625.0	0.0405
628.0	0.0405
631.0	0.0407
634.0	0.0405
637.0	0.0406
640.0	0.0406
643.0	0.0406
646.0	0.0405
649.0	0.0404
652.0	0.0405
655.0	0.0405
658.0	0.0407
661.0	0.0409
664.0	0.0408
667.0	0.0407
670.0	0.0409
673.0	0.0406
676.0	0.0404
679.0	0.0406
682.0	0.0410
685.0	0.0406
688.0	0.0407
691.0	0.0410
694.0	0.0408
697.0	0.0409
700.0	0.0413
703.0	0.0415
706.0	0.0421
709.0	0.0429
712.0	0.0436
715.0	0.0442
718.0	0.0436
721.0	0.0428
724.0	0.0420
727.0	0.0417
730.0	0.0417
733.0	0.0419
736.0	0.0423
739.0	0.0425
742.0	0.0427
745.0	0.0429
748.0	0.0428
751.0	0.0426
754.0	0.0427
757.0	0.0422
760.0	0.0420
763.0	0.0418
766.0	0.0420
769.0	0.0422
772.0	0.0424
775.0	0.0426
778.0	0.0426
781.0	0.0430
784.0	0.0428
787.0	0.0430
790.0	0.0428
793.0	0.0429
796.0	0.0434
799.0	0.0434
802.0	0.0412
805.0	0.0412
808.0	0.0414
811.0	0.0413
814.0	0.0412
817.0	0.0412
820.0	0.0411
823.0	0.0412
826.0	0.0410
829.0	0.0409
832.0	0.0315
835.0	0.0316
838.0	0.0316
841.0	0.0316
844.0	0.0317
847.0	0.0321
850.0	0.0327
853.0	0.0332
856.0	0.0343
859.0	0.0362
862.0	0.0390
865.0	0.0439
868.0	0.0511
871.0	0.0595
874.0	0.0664
877.0	0.0669
880.0	0.0608
883.0	0.0516
886.0	0.0438
889.0	0.0390
892.0	0.0373
895.0	0.0373
898.0	0.0385
901.0	0.0404
904.0	0.0432
907.0	0.0454
910.0	0.0465
913.0	0.0466
916.0	0.0458
919.0	0.0434
922.0	0.0397
925.0	0.0357
928.0	0.0335
931.0	0.0324
934.0	0.0320
937.0	0.0315
940.0	0.0308
943.0	0.0303
946.0	0.0300
949.0	0.0298
952.0	0.0297
955.0	0.0298
958.0	0.0299
961.0	0.0300
964.0	0.0302
967.0	0.0302
970.0	0.0304
973.0	0.0308
976.0	0.0314
979.0	0.0318
982.0	0.0322
985.0	0.0326
988.0	0.0334
991.0	0.0344
994.0	0.0357
997.0	0.0367
1000.0	0.0370