File: raman_norm/raman_NPl_glass_10s_5a_P10_488nm.txt
3004.05	5054.23
2997.35	5262.89
2990.64	5344.98
2983.92	5431.39
2977.2	5473.02
2970.48	5544.29
2963.75	5542.65
2957.01	5502.42
2950.27	5557.13
2943.52	5491.74
2936.77	5537.46
2930.01	5478.08
2923.24	5432.08
2916.47	5485.07
2909.69	5394.87
2902.91	5337.23
2896.12	5192.78
2889.33	5220.73
2882.53	5286.84
2875.72	5069.32
2868.91	5089.93
2862.1	4990.24
2855.27	5103.16
2848.44	4967.01
2841.61	5008.06
2834.77	5021.26
2827.92	5016.91
2821.07	4945.45
2814.21	4977.58
2807.35	4961.6
2800.48	4990.73
2793.6	4963.11
2786.72	5058.99
2779.83	5038.59
2772.93	5112.46
2766.03	5145.63
2759.13	5185.97
2752.21	5194.41
2745.29	5146.47
2738.37	5228.53
2731.44	5257.08
2724.5	5321.58
2717.56	5275.1
2710.61	5202.81
2703.65	5360.57
2696.69	5242.36
2689.72	5273.54
2682.75	5235.87
2675.77	5206.84
2668.78	5104.88
2661.79	5093.16
2654.79	5015.75
2647.78	4959.87
2640.77	4898.39
2633.75	4886.85
2626.73	4878.18
2619.69	4750.08
2612.66	4767.1
2605.61	4649.26
2598.56	4681.91
2591.51	4598.34
2584.44	4584.27
2577.37	4587.18
2570.3	4657.89
2563.21	4516.74
2556.13	4490.07
2549.03	4536.7
2541.93	4431.21
2534.82	4407.48
2527.71	4407.68
2520.58	4445.76
2513.46	4377.19
2506.32	4511.9
2499.18	4457.37
2492.03	4360.98
2484.88	4386.33
2477.72	4283.18
2470.55	4350.39
2463.38	4307.37
2456.2	4243.55
2449.01	4321.71
2441.82	4328.85
2434.62	4215.18
2427.41	4193.27
2420.2	4254.54
2412.98	4186.93
2405.75	4167.85
2398.52	4198.55
2391.28	4214
2384.03	4163.2
2376.78	4200.7
2369.52	4203.7
2362.25	4234.2
2354.98	4165.68
2347.7	4120.63
2340.41	4146.99
2333.12	4224.01
2325.82	4121.5
2318.51	4136.83
2311.2	4135.72
2303.87	4078.63
2296.55	4123.95
2289.21	4165.09
2281.87	4172.11
2274.52	4168.23
2267.17	4154.84
2259.81	4129.24
2252.44	4133.54
2245.06	4106.64
2237.68	4201.66
2230.29	4126.05
2222.89	4157.34
2215.49	4102.15
2208.08	4105.06
2200.66	4117.4
2193.24	4057
2185.81	4015.54
2178.37	4035.98
2170.92	4098
2163.47	4041.85
2156.01	4110.44
2148.55	4063.74
2141.07	4050.57
2133.59	4070.84
2126.11	4048.33
2118.61	4052.54
2111.11	4051.4
2103.6	4107.51
2096.09	4069.07
2088.57	4032.03
2081.04	4017.62
2073.5	4109.35
2065.96	4018.03
2058.41	4079.12
2050.85	4130.84
2043.29	3988.2
2035.71	4138.91
2028.14	4045.32
2020.55	4008.57
2012.96	4019.27
2005.36	4083.87
1997.75	4034.03
1990.13	4039.41
1982.51	4090.69
1974.88	4002.96
1967.25	3991.33
1959.6	3960.09
1951.95	3996.85
1944.29	3951.3
1936.63	3981.46
1928.96	3926.88
1921.28	3919.26
1913.59	3964.96
1905.89	3872.85
1898.19	3914.61
1890.48	3917.37
1882.77	3898.11
1875.04	3970.76
1867.31	3942.42
1859.57	3902.5
1851.83	3949.12
1844.07	3918.28
1836.31	3895.23
1828.55	3879.93
1820.77	3900.66
1812.99	3842.99
1805.2	3876.53
1797.4	3877.95
1789.59	3880.64
1781.78	3754.1
1773.96	3865.55
1766.13	3815.87
1758.3	3879.83
1750.46	3837.86
1742.61	3854.55
1734.75	3873.74
1726.88	3938.65
1719.01	3901.84
1711.13	3857.49
1703.24	3849.97
1695.35	3947.54
1687.44	3900.72
1679.53	3883.05
1671.61	3910.85
1663.69	3933.55
1655.75	4156.52
1647.81	4508.7
1639.86	5496.48
1631.9	7552.67
1623.94	8768.98
1615.97	8994.9
1607.99	9170.26
1600	9678.13
1592	9806.18
1584	9138.41
1575.99	7813.13
1567.97	6767.15
1559.94	6112.97
1551.9	5683.99
1543.86	5308.04
1535.81	5043.32
1527.75	5006.09
1519.68	4851.21
1511.61	4779.57
1503.52	4726.61
1495.43	4699.68
1487.33	4735.74
1479.23	4611.43
1471.11	4739.88
1462.99	4585.02
1454.86	4558.32
1446.72	4667.97
1438.57	4763.9
1430.41	4909.88
1422.25	5244.1
1414.08	5528.72
1405.9	5943.5
1397.71	6599.12
1389.51	7393.64
1381.3	8248.66
1373.09	9364.81
1364.87	10189.3
1356.64	10256.7
1348.4	9746.34
1340.15	8721.9
1331.9	7680.16
1323.63	6594.56
1315.36	5706.92
1307.08	5049.23
1298.79	4591.84
1290.49	4263.06
1282.18	3863.95
1273.87	3563.03
1265.54	3459.65
1257.21	3253.32
1248.87	3049.8
1240.52	2885.01
1232.16	2769.58
1223.79	2654.38
1215.41	2626.53
1207.03	2534.35
1198.63	2437.6
1190.23	2324.39
1181.82	2266.08
1173.4	2211.44
1164.97	2148.6
1156.53	2143.94
1148.08	2120.35
1139.62	2087.34
1131.16	2103.98
1122.68	2063.97
1114.2	2004.01
1105.7	1921.81
1103.58	1944.82